I_abs(s)[cm^-1]/c[mg/ml]
  0.000000E+00  0.211293E-01
  0.100000E-01  0.205367E-01
  0.200000E-01  0.188527E-01
  0.300000E-01  0.163322E-01
  0.400000E-01  0.133417E-01
  0.500000E-01  0.102816E-01
  0.600000E-01  0.750910E-02
  0.700000E-01  0.527731E-02
  0.800000E-01  0.370296E-02
  0.900000E-01  0.276748E-02
  0.100000E+00  0.234706E-02
  0.110000E+00  0.226024E-02
  0.120000E+00  0.231922E-02
  0.130000E+00  0.237172E-02
  0.140000E+00  0.232520E-02
  0.150000E+00  0.215096E-02
  0.160000E+00  0.187184E-02
  0.170000E+00  0.154014E-02
  0.180000E+00  0.121408E-02
  0.190000E+00  0.939278E-03
  0.200000E+00  0.739097E-03
  0.210000E+00  0.613970E-03
  0.220000E+00  0.547513E-03
  0.230000E+00  0.515787E-03
  0.240000E+00  0.496103E-03
  0.250000E+00  0.472844E-03
  0.260000E+00  0.439448E-03
  0.270000E+00  0.397121E-03
  0.280000E+00  0.351560E-03
  0.290000E+00  0.309348E-03
  0.300000E+00  0.275249E-03
  0.310000E+00  0.251018E-03
  0.320000E+00  0.235623E-03
  0.330000E+00  0.226329E-03
  0.340000E+00  0.220063E-03
  0.350000E+00  0.214403E-03
  0.360000E+00  0.208046E-03
  0.370000E+00  0.200666E-03
  0.380000E+00  0.192525E-03
  0.390000E+00  0.184016E-03
  0.400000E+00  0.175355E-03
  0.410000E+00  0.166587E-03
  0.420000E+00  0.157711E-03
  0.430000E+00  0.148864E-03
  0.440000E+00  0.140429E-03
  0.450000E+00  0.132972E-03
  0.460000E+00  0.127052E-03
  0.470000E+00  0.122978E-03
  0.480000E+00  0.120657E-03
  0.490000E+00  0.119546E-03
  0.500000E+00  0.118796E-03
