I_abs(s)[cm^-1]/c[mg/ml]
  0.000000E+00  0.141783E-01
  0.100000E-01  0.139883E-01
  0.200000E-01  0.134337E-01
  0.300000E-01  0.125569E-01
  0.400000E-01  0.114237E-01
  0.500000E-01  0.101150E-01
  0.600000E-01  0.871773E-02
  0.700000E-01  0.731615E-02
  0.800000E-01  0.598371E-02
  0.900000E-01  0.477731E-02
  0.100000E+00  0.373419E-02
  0.110000E+00  0.287159E-02
  0.120000E+00  0.218881E-02
  0.130000E+00  0.167112E-02
  0.140000E+00  0.129452E-02
  0.150000E+00  0.103059E-02
  0.160000E+00  0.850794E-03
  0.170000E+00  0.729618E-03
  0.180000E+00  0.646462E-03
  0.190000E+00  0.586287E-03
  0.200000E+00  0.539269E-03
  0.210000E+00  0.499803E-03
  0.220000E+00  0.465252E-03
  0.230000E+00  0.434702E-03
  0.240000E+00  0.407984E-03
  0.250000E+00  0.385004E-03
  0.260000E+00  0.365441E-03
  0.270000E+00  0.348686E-03
  0.280000E+00  0.333944E-03
  0.290000E+00  0.320419E-03
  0.300000E+00  0.307450E-03
  0.310000E+00  0.294575E-03
  0.320000E+00  0.281556E-03
  0.330000E+00  0.268335E-03
  0.340000E+00  0.254964E-03
  0.350000E+00  0.241524E-03
  0.360000E+00  0.228096E-03
  0.370000E+00  0.214742E-03
  0.380000E+00  0.201520E-03
  0.390000E+00  0.188511E-03
  0.400000E+00  0.175843E-03
  0.410000E+00  0.163706E-03
  0.420000E+00  0.152349E-03
  0.430000E+00  0.142035E-03
  0.440000E+00  0.133019E-03
  0.450000E+00  0.125483E-03
  0.460000E+00  0.119498E-03
  0.470000E+00  0.115010E-03
  0.480000E+00  0.111831E-03
  0.490000E+00  0.109665E-03
  0.500000E+00  0.108144E-03
